time (s)	coil I (A)	last det (V)	int current (uC)
7617.091622	3.266207	271.582031	-40.917969
7617.093623	3.266639	35.933029	0.356949
7618.132173	3.266201	97.753906	-72.656250
7618.134175	3.266970	35.936672	0.476062
7619.172235	3.264721	268.945312	-38.769531
7619.174238	3.266314	35.929459	0.353782
7620.208270	3.265725	100.488281	-62.207031
7620.210272	3.266943	35.936371	0.323886
7621.258319	3.266401	268.750000	-39.746094
7621.260321	3.266508	35.931583	0.347007
7622.298880	3.264788	100.781250	-68.847656
7622.300881	3.266901	35.935909	0.335692
7623.334879	3.265474	270.117187	-39.843750
7623.336879	3.266519	35.931709	0.367820
7624.376944	3.265674	100.000000	-74.023437
7624.378946	3.266500	35.931503	0.341291
7625.416973	3.266607	268.652344	-38.671875
7625.420971	3.267599	268.652344	-38.671875
7625.422974	3.267481	35.942291	0.363570
7626.459025	3.266151	101.367187	-69.531250
7626.461027	3.266352	101.367187	-69.531250
7626.463027	3.266891	35.935795	0.337205
7627.501610	3.266222	268.066406	-38.183594
7627.503608	3.267332	35.940651	0.397143
7628.539734	3.264816	99.707031	-77.050781
7628.541735	3.266641	35.933048	0.327139
7629.585856	2.431867	267.285156	-37.207031
7629.587857	3.265034	35.915375	0.367463
7630.621896	3.265128	100.976562	-74.414062
7630.623897	3.266385	35.930237	0.349934
7631.663952	3.264716	268.066406	-37.011719
7631.665954	3.266527	35.931801	0.384906
7632.704034	3.264114	103.515625	-65.625000
7632.706042	3.266236	35.928600	0.340743
7633.748086	3.198249	269.921875	-36.718750
7633.752085	3.266945	35.936398	0.370200
7634.786720	2.577464	100.976562	-78.320312
7634.788722	3.266851	35.935360	0.342606
7635.826802	3.266297	267.382812	-33.007812
7635.828804	3.266412	35.930531	0.353665
7636.870840	3.266207	99.316406	-87.011719
7636.872844	3.266877	35.935650	0.483669
7637.914872	3.267301	265.332031	-30.664062
7637.916874	3.267471	35.942177	0.376839
7638.946917	3.265014	104.492187	-63.476562
7638.948918	3.266595	35.932541	0.346399
7639.997921	3.265492	265.234375	-29.003906
7639.999922	3.266429	35.930717	0.363913
7641.035910	3.265813	101.660156	-84.765625
7641.037911	3.266749	35.934242	0.363410
7642.073952	3.266699	272.265625	-33.398437
7642.075955	3.266915	35.936069	0.375015
7643.114538	3.266148	103.222656	-78.515625
7643.116539	3.266815	35.934971	0.351523
7644.156595	3.264948	270.117187	-31.640625
7644.158597	3.266153	35.927689	0.372898
7645.196645	3.265774	102.343750	-86.523437
7645.198647	3.266865	35.935520	0.364490
7646.238673	3.264927	269.238281	-31.250000
7646.240676	3.266369	35.930061	0.366061
7647.280745	3.263972	103.417969	-85.449219
7647.282747	3.266093	35.927029	0.353640
7648.326835	3.266202	269.042969	-32.031250
7648.328837	3.266509	35.931602	0.380736
7649.363444	3.264922	102.832031	-90.820312
7649.365445	3.266277	35.929043	0.370836
7650.403497	3.266195	268.750000	-33.105469
7650.405498	3.267401	35.941414	0.371908
7651.443514	3.265450	100.878906	-95.605469
7651.445515	3.266608	35.932682	0.369792
7652.489525	3.265170	266.210937	-32.519531
7652.491525	3.266279	35.929070	0.373910
7653.521569	3.265737	105.566406	-76.367187
7653.523573	3.266283	35.929115	0.357965
7654.561610	3.266386	269.824219	-37.109375
7654.563612	3.267079	35.937866	0.349571
7655.608186	3.266651	108.105469	-74.609375
7655.610188	3.267085	35.937939	0.397038
7656.650229	3.264932	269.726562	-32.714844
7656.652232	3.266212	35.928333	0.388494
7657.690309	3.266663	101.660156	-101.074219
7657.692310	3.266918	35.936096	0.363684
7658.732339	3.265763	266.894531	-30.078125
7658.734340	3.266342	35.929760	0.380823
7659.778377	3.265187	101.757812	-106.054687
7659.780379	3.266327	35.929600	0.383977
7660.814355	3.265047	267.675781	-29.785156
7660.816357	3.266699	35.933685	0.375241
7661.852380	3.265384	105.859375	-87.597656
7661.856382	3.267089	35.937984	0.367712
7662.894433	3.264066	267.871094	-29.296875
7662.896435	3.266568	267.871094	-29.296875
7662.898435	3.267529	35.942814	0.393779
7663.936493	3.265839	104.980469	-93.652344
7663.938495	3.266663	35.933296	0.377718
7664.978515	3.265795	266.406250	-28.613281
7664.980517	3.266505	266.406250	-28.613281
7664.982518	3.266687	35.933563	0.389026
7666.018567	3.266297	105.761719	-90.234375
7666.020570	3.267184	35.939022	0.380272
7667.058646	3.265786	265.136719	-28.125000
7667.060647	3.265832	35.924149	0.394891
7668.102688	3.266911	106.152344	-90.039062
7668.104690	3.267097	35.938065	0.437293
7669.139266	3.264528	266.503906	-30.175781
7669.141269	3.266366	35.930027	0.389533
7670.179853	3.264117	107.519531	-86.230469
7670.181854	3.266284	107.519531	-86.230469
7670.183854	3.266815	35.934963	0.375671
7671.220369	2.081494	265.820312	-30.859375
7671.222371	3.266635	35.932983	0.395981
7672.268951	3.266583	102.929687	-104.492187
7672.270954	3.266587	35.932453	0.368863
7673.303012	3.265308	261.718750	-29.101562
7673.305013	3.267253	35.939781	0.397573
7674.349053	3.266828	107.324219	-90.917969
7674.353050	3.267154	35.938694	0.375008
7675.383637	3.266315	265.429687	-33.984375
7675.385641	3.266737	35.934101	0.396795
7676.430633	3.264535	104.492187	-103.906250
7676.432636	3.266187	35.928055	0.379669
7677.466696	3.265647	260.742187	-30.468750
7677.468700	3.266426	35.930691	0.468738
7678.510738	3.265996	107.031250	-97.753906
7678.512741	3.266554	35.932098	0.375550
7679.548810	3.265774	259.765625	-30.175781
7679.550809	3.266403	35.930431	0.398992
7680.594793	3.265211	105.468750	-107.128906
7680.596797	3.266638	35.933022	0.379891
7681.630821	3.264395	260.546875	-31.054687
7681.634820	3.267049	35.937538	0.405852
7682.672883	3.264493	108.007812	-99.023437
7682.674884	3.266235	35.928589	0.341579
7683.712911	3.266277	262.402344	-32.812500
7683.714915	3.266886	35.935741	0.403244
7684.761487	3.266617	104.492187	-115.429687
7684.763490	3.266639	35.933029	0.375567
7685.795536	3.267230	262.207031	-32.324219
7685.797537	3.267264	35.939907	0.400360
7686.838082	3.265109	109.082031	-97.070312
7686.840084	3.266213	35.928341	0.375740
7687.876677	3.265502	259.570312	-30.371094
7687.878679	3.266506	35.931568	0.410084
7688.924697	3.265786	105.664062	-113.964844
7688.926702	3.266757	35.934334	0.421695
7689.956768	3.265086	258.886719	-29.101562
7689.958772	3.266703	35.933731	0.408330
7691.002791	3.266578	110.156250	-95.800781
7691.006791	3.266891	35.935795	0.379791
7692.041772	3.265605	257.031250	-26.562500
7692.045772	3.266662	35.933285	0.406374
7693.083825	3.266736	109.375000	-100.000000
7693.085826	3.267486	35.942345	0.385147
7694.122378	3.265856	260.937500	-28.808594
7694.124379	3.266704	35.933739	0.408919
7695.166951	3.265489	108.886719	-103.027344
7695.168952	3.266466	35.931126	0.389843
7696.204993	3.264350	258.300781	-25.878906
7696.206996	3.266086	35.926941	0.413105
7697.251051	3.266303	107.324219	-111.035156
7697.253052	3.266508	35.931583	0.393059
7698.289117	3.266378	258.203125	-24.218750
7698.291121	3.266870	35.935566	0.410581
7699.331169	3.263916	106.933594	-114.257812
7699.333169	3.265894	35.924831	0.395314
7700.369662	3.264540	258.203125	-23.144531
7700.371663	3.266209	35.928299	0.413038
7701.409709	3.265020	110.351562	-103.027344
7701.411711	3.266779	35.934570	0.394794
7702.455740	3.267068	262.597656	-25.781250
7702.457743	3.267189	35.939083	0.410677
7703.494712	3.265804	109.179687	-108.984375
7703.496715	3.266938	35.936317	0.445971
7704.532730	3.264586	259.277344	-23.632812
7704.534731	3.266495	35.931442	0.414884
7705.574759	3.266085	112.304687	-99.414062
7705.576760	3.266435	35.930786	0.398278
7706.613320	3.264279	263.183594	-26.757812
7706.615328	3.266640	35.933041	0.407177
7707.657383	3.266422	111.523437	-103.613281
7707.659384	3.266793	35.934723	0.403190
7708.697926	3.265159	261.035156	-26.171875
7708.699929	3.266342	35.929760	0.415233
7709.736516	3.265986	112.890625	-99.023437
7709.738521	3.267006	35.937061	0.398291
7710.783460	3.266634	261.230469	-27.539062
7710.785463	3.266915	35.936062	0.413078
7711.821520	3.266244	108.398437	-117.675781
7711.823522	3.266264	35.928909	0.543849
7712.865566	3.266475	257.910156	-25.292969
7712.867567	3.267157	35.938728	0.412197
7713.903570	3.266184	106.640625	-126.074219
7713.905571	3.266688	35.933571	0.702428
7714.943611	3.264021	258.496094	-25.488281
7714.945613	3.266137	35.927509	0.420068
7715.983642	3.266351	110.742187	-112.988281
7715.985644	3.266898	35.935883	0.409259
7717.025739	3.266432	258.984375	-25.195312
7717.027740	3.266407	35.930477	0.418360
7718.064317	3.264317	111.035156	-112.304687
7718.066319	3.266261	35.928871	0.410420
7719.112396	3.267051	258.789062	-24.121094
7719.114400	3.267336	35.940697	0.416341
7720.144962	3.265692	110.449219	-115.039062
7720.146961	3.267015	35.937160	0.408986
7721.191035	3.266054	257.714844	-22.753906
7721.193037	3.266563	35.932198	0.418861
7722.229609	3.265124	110.839844	-116.308594
7722.231610	3.266791	35.934704	0.415491
7723.273684	3.266587	258.398437	-23.535156
7723.275687	3.267195	35.939144	0.416131
7724.310642	3.264016	111.621094	-113.183594
7724.312643	3.266203	35.928234	0.408385
7725.354634	3.264982	252.539062	-19.433594
7725.356637	3.266487	35.931355	0.420362
7726.394634	3.266173	109.082031	-123.242187
7726.396636	3.266923	35.936150	0.406329
7727.434619	3.263921	253.710937	-20.507812
7727.436621	3.266553	253.710937	-20.507812
7727.438621	3.267394	35.941334	0.423705
7728.476710	3.264838	109.765625	-120.898437
7728.478713	3.265935	35.925285	0.413199
7729.516732	3.266093	254.101562	-21.582031
7729.518733	3.266169	35.927856	0.558693
7730.560807	3.267462	113.867187	-106.542969
7730.562808	3.267516	35.942673	0.405330
7731.597825	3.263781	251.074219	-21.484375
7731.599826	3.266214	251.074219	-21.484375
7731.603826	3.266770	35.934467	0.428576
7732.641885	3.265544	109.960937	-123.242187
7732.643884	3.266315	35.929466	0.417345
7733.679937	3.266256	250.097656	-21.484375
7733.681941	3.267296	35.940250	0.431682
7734.723998	3.266992	112.792969	-114.746094
7734.726001	3.267405	35.941460	0.410484
7735.760583	3.266882	252.343750	-24.511719
7735.762585	3.267337	35.940704	0.434778
7736.806639	3.266939	112.695312	-116.308594
7736.808641	3.266993	35.936920	0.407048
7737.843217	3.263823	248.828125	-22.949219
7737.845219	3.266123	35.927349	0.431866
7738.887272	3.265089	109.082031	-131.347656
7738.889272	3.266572	35.932293	0.412933
7739.925287	3.265331	247.265625	-22.265625
7739.927288	3.266801	35.934811	0.438856
7740.973298	3.266958	111.425781	-125.488281
7740.975300	3.267084	35.937923	0.418140
7742.007837	3.265405	246.582031	-22.363281
7742.009840	3.267102	35.938126	0.441688
7743.051864	3.264045	109.960937	-131.835937
7743.053866	3.265804	35.923847	0.414028
7744.087884	3.266144	246.972656	-23.242187
7744.089886	3.266614	246.972656	-23.242187
7744.091887	3.266663	35.933296	0.435849
7745.129926	3.263855	112.695312	-123.535156
7745.131928	3.266226	112.695312	-123.535156
7745.133928	3.266564	35.932205	0.412010
7746.169996	3.264356	246.386719	-22.363281
7746.171997	3.266277	35.929043	0.436546
7747.214061	3.264129	113.476562	-121.679687
7747.216064	3.266219	35.928413	0.416631
7748.254094	3.265821	248.046875	-23.242187
7748.256095	3.266753	35.934288	0.445958
7749.294172	3.267290	114.550781	-118.066406
7749.296174	3.267325	35.940578	0.418869
7750.336749	3.266428	250.488281	-25.000000
7750.338752	3.266633	35.932957	0.437354
7751.377739	3.266133	113.281250	-126.757812
7751.379740	3.267248	35.939728	0.420266
7752.419775	3.266679	249.414062	-23.144531
7752.421776	3.267417	35.941593	0.435995
7753.456370	2.231573	113.964844	-124.804687
7753.458372	3.266153	113.964844	-124.804687
7753.460372	3.266985	35.936832	0.429597
7754.500523	3.265228	246.777344	-19.531250
7754.502525	3.266451	35.930965	0.440837
7755.538569	3.265485	114.453125	-125.097656
7755.540573	3.267117	35.938286	0.435710
7756.578586	3.266331	248.632812	-20.605469
7756.580588	3.267274	35.940014	0.429094
7757.620638	3.265738	113.183594	-128.710937
7757.622641	3.266598	35.932579	0.438637
7758.668678	3.263628	245.898437	-16.601562
7758.670685	3.266420	245.898437	-16.601562
7758.672689	3.266634	35.932968	0.448016
7759.714723	3.264876	106.933594	-149.218750
7759.716725	3.266325	35.929573	0.405256
7760.750726	3.265187	246.386719	-16.015625
7760.752728	3.266932	35.936256	0.459496
7761.785259	3.266125	115.527344	-122.363281
7761.787260	3.266675	35.933426	0.704297
7762.827829	3.265950	249.316406	-17.675781
7762.829831	3.266800	35.934803	0.444277
7763.868377	3.265904	115.039062	-126.953125
7763.872378	3.267031	35.937347	0.440469
7764.912446	3.265506	247.656250	-16.503906
7764.914445	3.266930	35.936230	0.456362
7765.950474	3.264723	114.648437	-130.566406
7765.954475	3.266525	35.931770	0.444839
7766.994529	3.266094	246.582031	-16.015625
7766.996532	3.266657	35.933228	0.533471
7768.032588	3.266158	117.968750	-122.656250
7768.034590	3.266660	35.933258	0.442673
7769.075621	3.264431	245.410156	-15.527344
7769.077624	3.266181	35.927986	0.449105
7770.111670	3.264443	116.503906	-127.929687
7770.113671	3.266192	35.928112	0.439687
7771.157714	3.265463	245.312500	-15.722656
7771.159716	3.266190	35.928093	0.448750
7772.197722	3.266776	116.113281	-132.031250
7772.199724	3.267206	35.939270	0.445341
7773.240303	3.265953	249.316406	-18.847656
7773.242306	3.267184	35.939030	0.447350
7774.279263	3.266094	115.625000	-135.058594
7774.281262	3.266647	35.933117	0.494376
7775.317298	3.264576	248.242187	-18.261719
7775.319300	3.266257	35.928829	0.451974
7776.359861	2.415951	116.992187	-131.933594
7776.361862	3.266882	35.935707	0.444312
7777.401888	3.264359	243.359375	-14.453125
7777.405888	3.267289	35.940182	0.449882
7778.442358	3.264896	115.234375	-138.476562
7778.444358	3.266492	35.931408	0.445686
7779.482371	3.263263	247.753906	-17.578125
7779.484371	3.266042	247.753906	-17.578125
7779.486372	3.266843	35.935272	0.456148
7780.523346	3.265313	117.089844	-134.472656
7780.527346	3.266565	35.932213	0.447264
7781.567385	3.266635	247.460937	-16.796875
7781.569385	3.267012	35.937134	0.454864
7782.601426	2.202870	116.406250	-135.546875
7782.608749	3.266996	116.406250	-135.546875
7782.610748	3.266871	35.935581	0.447575
7783.646805	3.263952	247.363281	-16.503906
7783.648807	3.266025	35.926277	0.458954
7784.687818	3.264357	116.113281	-137.011719
7784.689820	3.266052	35.926571	0.448218
7785.729934	3.264607	243.164062	-13.476562
7785.731937	3.266243	35.928669	0.463872
7786.767958	3.266861	120.507812	-122.265625
7786.769961	3.267366	35.941021	0.444721
7787.809984	3.267006	245.117187	-15.527344
7787.811986	3.267150	35.938648	0.461963
7788.850525	3.264926	116.796875	-134.570312
7788.852527	3.266535	35.931885	0.447264
7789.892583	3.265510	241.015625	-14.062500
7789.894586	3.266758	35.934341	0.470435
7790.934626	3.266175	117.773437	-132.910156
7790.936627	3.266466	35.931126	0.449654
7791.973227	3.264711	241.113281	-15.527344
7791.975228	3.266263	35.928890	0.468229
7793.017255	3.265332	115.429687	-141.992187
7793.019259	3.266435	35.930786	0.448167
7794.055314	3.264695	238.281250	-14.941406
7794.057318	3.266811	35.934925	0.469704
7795.095388	3.265421	116.015625	-141.210937
7795.097391	3.266449	35.930939	0.448399
7796.139436	3.267013	241.308594	-17.968750
7796.141439	3.267172	35.938889	0.763081
7797.180391	3.266401	113.867187	-149.218750
7797.182393	3.266757	35.934326	0.446771
7798.224463	3.266652	236.523437	-14.941406
7798.226471	3.266611	35.932720	0.468878
7799.262531	3.265791	115.917969	-145.703125
7799.264534	3.266600	35.932606	0.456791
7800.298664	3.264912	240.136719	-18.261719
7800.302665	3.267524	35.942760	0.493734
7801.345233	3.266325	113.378906	-152.343750
7801.347236	3.266349	35.929840	0.449880
7802.383214	3.266336	240.136719	-19.921875
7802.385217	3.266802	35.934822	0.693215
7803.427227	3.266579	119.238281	-135.937500
7803.429226	3.266489	35.931381	0.452385
7804.466149	3.266947	239.355469	-19.824219
7804.468150	3.266986	35.936852	0.501008
7805.509147	3.266176	119.433594	-137.988281
7805.511147	3.266725	35.933979	0.470040
7806.547722	3.266564	238.085937	-18.066406
7806.549725	3.266419	35.930611	0.476972
7807.590284	3.266465	113.671875	-157.226562
7807.592287	3.267321	35.940536	0.458147
7808.628239	3.265974	234.863281	-15.039062
7808.630241	3.266525	35.931770	0.474075
7809.674200	3.266501	118.652344	-142.089844
7809.676204	3.266623	35.932854	0.459808
7810.710770	3.265898	233.886719	-14.550781
7810.712772	3.266434	35.930779	0.474853
7811.752781	3.265260	117.773437	-145.019531
7811.754785	3.266562	35.932186	0.458975
7812.792846	3.266430	237.597656	-15.722656
7812.794848	3.267463	35.942097	0.506105
7813.835423	3.265577	119.433594	-141.406250
7813.837426	3.267015	35.937168	0.464059
7814.871971	3.263638	237.109375	-14.257812
7814.873973	3.266140	237.109375	-14.257812
7814.875974	3.266549	35.932037	0.485197
7815.918053	3.266766	116.992187	-148.730469
7815.920054	3.267012	35.937134	0.461418
7816.956096	3.266110	235.644531	-13.281250
7816.958099	3.267037	35.937408	0.606512
7818.000187	3.266228	115.136719	-154.394531
7818.002189	3.266460	35.931061	0.460406
7819.038221	3.264024	233.886719	-11.425781
7819.040221	3.266143	35.927570	0.487088
7820.082727	3.266845	116.796875	-150.976562
7820.084729	3.267391	35.941307	0.469501
7821.120775	3.266521	236.230469	-11.718750
7821.122779	3.267202	35.939224	0.485853
7822.160838	3.263760	118.359375	-148.242187
7822.162840	3.266037	118.359375	-148.242187
7822.164841	3.266417	35.930584	0.472119
7823.202871	3.264337	236.035156	-9.960937
7823.204873	3.266566	35.932224	0.483762
7824.242909	3.266193	121.777344	-140.136719
7824.244911	3.267077	35.937851	0.622133
7825.285475	3.266200	236.914062	-10.742187
7825.287477	3.267327	35.940598	0.478349
7826.321502	3.265775	125.488281	-135.156250
7826.323502	3.266708	35.933792	0.556079
7827.363490	3.265182	240.039062	-12.207031
7827.365493	3.266351	35.929867	0.485700
7828.406099	3.263479	125.683594	-138.671875
7828.408100	3.266260	125.683594	-138.671875
7828.410100	3.266976	35.936733	0.492042
7829.448114	3.266611	240.527344	-12.500000
7829.450116	3.267483	35.942318	0.729328
7830.492096	3.265764	121.484375	-155.761719
7830.494097	3.266426	35.930683	0.488545
7831.530155	3.265253	239.160156	-11.328125
7831.532155	3.266366	35.930027	0.491066
7832.572237	3.263747	119.921875	-161.425781
7832.574239	3.266551	119.921875	-161.425781
7832.576241	3.267127	35.938400	0.486740
7833.612338	3.265922	241.210937	-13.378906
7833.614341	3.266641	35.933056	0.490665
7834.657294	3.264304	121.484375	-162.304687
7834.659296	3.266898	35.935875	0.484919
7835.693375	3.265937	236.035156	-9.179687
7835.695376	3.266384	35.930229	0.491820
7836.735393	3.263636	122.949219	-156.152344
7836.737396	3.265755	122.949219	-156.152344
7836.741394	3.266575	35.932327	0.486477
7837.777462	3.266305	233.984375	-8.203125
7837.779464	3.266591	35.932495	0.569162
7838.819509	3.263059	123.925781	-153.417969
7838.821512	3.265970	123.925781	-153.417969
7838.823512	3.266515	35.931664	0.490293
7839.857559	3.267104	239.257812	-12.011719
7839.859561	3.267341	35.940746	0.494411
7840.900067	3.266005	125.390625	-145.214844
7840.902069	3.266323	35.929558	0.486959
7841.936664	3.263109	234.082031	-8.398437
7841.938667	3.265814	234.082031	-8.398437
7841.942665	3.266479	35.931274	0.494293
7842.982717	3.265329	121.972656	-156.347656
7842.984721	3.266506	35.931568	0.491190
7844.022832	3.266495	238.867187	-11.132812
7844.024834	3.266737	35.934109	0.497957
7845.065759	3.266186	122.070312	-155.859375
7845.067761	3.266779	35.934570	0.526925
7846.101800	3.264429	233.789062	-8.398437
7846.103805	3.266135	35.927483	0.503092
7847.145843	3.265563	120.703125	-162.011719
7847.147846	3.266550	35.932045	0.488724
7848.179873	3.266302	232.324219	-8.105469
7848.181876	3.266973	35.936707	0.501976
7849.231877	3.266870	119.824219	-163.769531
7849.233879	3.266891	35.935802	0.487970
7850.262345	3.263522	232.812500	-8.789062
7850.266345	3.266633	232.812500	-8.789062
7850.268349	3.266624	35.932869	0.506013
7851.310384	3.266872	127.539062	-142.285156
7851.312388	3.267201	35.939217	0.489868
7852.345378	3.263880	232.226562	-9.277344
7852.347381	3.266179	35.927971	0.510206
7853.393407	3.265837	126.464844	-147.460937
7853.395408	3.266491	35.931396	0.485070
7854.428426	3.266514	229.003906	-8.203125
7854.430427	3.266800	35.934803	0.506414
7855.474464	3.265143	126.660156	-148.242187
7855.476466	3.266235	35.928589	0.482090
7856.509430	3.267359	233.007812	-12.011719
7856.511431	3.267573	35.943302	0.511571
7857.557990	3.266492	124.511719	-154.492187
7857.559991	3.267159	35.938747	0.506331
7858.590624	3.264944	232.031250	-12.597656
7858.592625	3.266678	35.933453	0.508751
7859.641604	3.266337	125.781250	-150.976562
7859.643612	3.266277	35.929050	0.487502
7860.674586	3.266534	230.957031	-12.890625
7860.676586	3.266713	35.933846	0.570665
7861.723106	3.265257	120.312500	-166.992187
7861.725111	3.266339	35.929733	0.493447
7862.755144	3.266491	231.640625	-14.062500
7862.757144	3.267162	35.938782	0.506002
7863.800106	3.263312	126.464844	-150.878906
7863.802109	3.265961	126.464844	-150.878906
7863.804110	3.266589	35.932480	0.490279
7864.836672	3.265804	224.804687	-9.375000
7864.838673	3.266517	35.931690	0.561720
7865.884669	3.263948	121.875000	-164.746094
7865.886671	3.266242	121.875000	-164.746094
7865.888671	3.266475	35.931229	0.493442
7866.916700	3.264636	229.882812	-12.207031
7866.918703	3.266100	35.927101	0.514862
7867.967250	3.265582	120.898437	-167.871094
7867.969252	3.266301	35.929314	0.496447
7868.999722	3.266186	225.292969	-8.691406
7869.001721	3.266718	35.933899	0.833704
7870.049717	3.265671	120.214844	-170.800781
7870.051719	3.266755	35.934307	0.496355
7871.083715	3.266799	231.054687	-11.718750
7871.085717	3.266795	35.934750	0.513616
7872.129767	3.265232	121.679687	-167.089844
7872.131769	3.266381	35.930195	0.494501
7873.163813	2.401446	226.464844	-7.617187
7873.165815	3.266637	35.933010	0.519612
7874.211932	3.264925	125.488281	-157.324219
7874.213933	3.264932	35.914249	0.502229
7875.243993	3.263849	228.027344	-8.203125
7875.245994	3.265938	35.925320	0.517203
7876.296102	3.266656	126.953125	-154.101562
7876.298105	3.266827	35.935097	0.498032
7877.330693	3.266635	230.957031	-9.179687
7877.332695	3.266841	35.935253	0.514891
7878.375635	3.265742	123.339844	-164.746094
7878.377636	3.266614	35.932755	0.505278
7879.411695	3.267091	226.367187	-4.785156
7879.413696	3.267246	35.939713	0.521675
7880.459725	3.266897	127.734375	-155.664062
7880.461726	3.266704	35.933739	0.808146
7881.492237	3.264809	227.929687	-5.371094
7881.494240	3.266607	35.932674	0.521076
7882.538299	3.263763	123.730469	-167.285156
7882.540300	3.266534	123.730469	-167.285156
7882.542301	3.267355	35.940907	0.507514
7883.576279	3.266385	230.859375	-6.542969
7883.580278	3.266318	35.929493	0.515628
7884.618848	3.265869	130.078125	-153.222656
7884.620849	3.266494	35.931435	0.578029
7885.659839	3.266902	224.218750	-1.855469
7885.661842	3.267136	35.938496	0.519574
7886.701847	3.264100	126.562500	-163.574219
7886.703849	3.265971	35.925682	0.512546
7887.741895	3.266016	226.562500	-3.222656
7887.743898	3.266331	35.929642	0.521107
7888.785908	3.162653	129.687500	-156.738281
7888.787911	3.266542	35.931969	0.513202
7889.822499	3.266024	226.269531	-3.417969
7889.824501	3.266794	35.934738	0.524027
7890.866532	3.266556	130.761719	-155.664062
7890.868531	3.267014	35.937153	0.514323
7891.903099	3.265608	226.171875	-3.515625
7891.907099	3.267096	35.938053	0.523850
7892.949163	3.266237	124.316406	-172.851562
7892.951164	3.266756	35.934315	0.512706
7893.985185	3.263600	225.683594	-3.515625
7893.987186	3.265934	225.683594	-3.515625
7893.989188	3.266278	35.929058	0.526022
7895.029246	3.264900	128.027344	-164.843750
7895.031247	3.266239	35.928627	0.518607
7896.067269	3.266435	228.125000	-5.175781
7896.069274	3.266384	35.930229	0.522929
7897.111878	3.263272	125.390625	-171.289062
7897.113877	3.265982	125.390625	-171.289062
7897.115876	3.266376	35.930130	0.516154
7898.147921	3.264008	225.195312	-3.027344
7898.149920	3.266177	35.927944	0.527308
7899.191923	3.262625	127.832031	-165.429687
7899.193925	3.266049	127.832031	-165.429687
7899.195924	3.266587	35.932461	0.517422
7900.233987	3.266519	222.363281	-1.367187
7900.235988	3.266545	35.931992	0.526509
7901.274029	3.265847	127.050781	-167.089844
7901.276031	3.266696	35.933659	0.519793
7902.314034	3.265399	222.656250	-1.269531
7902.316037	3.266366	35.930027	0.529811
7903.358111	3.266632	131.738281	-154.589844
7903.360112	3.266896	35.935856	0.519719
7904.394149	3.265257	223.828125	-2.246094
7904.396151	3.266519	35.931709	0.530170
7905.438212	3.264141	127.636719	-165.625000
7905.442211	3.267078	35.937859	0.522647
7906.472235	2.628065	226.367187	-4.492187
7906.474235	3.266358	35.929935	0.532306
7907.523185	3.265351	126.562500	-167.285156
7907.527184	3.266529	35.931816	0.524626
7908.555269	3.266014	226.562500	-5.371094
7908.557270	3.266599	35.932587	0.532492
7909.603281	3.263736	126.660156	-168.750000
7909.605282	3.265940	126.660156	-168.750000
7909.609282	3.266387	35.930256	0.520386
7910.639330	3.266112	225.488281	-5.273437
7910.641334	3.266290	35.929192	0.534256
7911.688330	3.266094	124.218750	-176.660156
7911.690330	3.267006	35.937061	0.519116
7912.718380	3.265798	222.167969	-3.613281
7912.722380	3.266802	35.934822	0.539234
7913.770488	3.266093	124.023437	-177.636719
7913.772490	3.266450	35.930954	0.520267
7914.802524	3.266646	222.656250	-4.882812
7914.804525	3.266919	35.936111	0.542209
7915.851126	3.265511	125.488281	-174.511719
7915.853130	3.266860	35.935467	0.521992
7916.883203	3.265404	219.140625	-3.417969
7916.885204	3.266610	35.932713	0.536668
7917.931196	3.264982	130.859375	-163.574219
7917.933197	3.266098	35.927074	0.523732
7918.963729	3.265142	221.777344	-5.468750
7918.965732	3.266526	35.931782	0.539622
7920.013830	3.263955	129.101562	-169.921875
7920.015832	3.265904	129.101562	-169.921875
7920.017832	3.266498	35.931480	0.523724
7921.045931	3.265900	217.578125	-3.125000
7921.047933	3.266513	35.931648	0.537991
